# E (eV)  ldosup(E)  ldosdw(E) pdosup(E)  pdosdw(E) 
  5.000 -0.379E-05 -0.222E-05 -0.379E-05 -0.222E-05
  5.100 -0.177E-04 -0.115E-04 -0.177E-04 -0.115E-04
  5.200 -0.590E-04 -0.425E-04 -0.590E-04 -0.425E-04
  5.300 -0.137E-03 -0.110E-03 -0.137E-03 -0.110E-03
  5.400 -0.221E-03 -0.199E-03 -0.221E-03 -0.199E-03
  5.500 -0.247E-03 -0.249E-03 -0.247E-03 -0.249E-03
  5.600 -0.830E-04 -0.176E-03 -0.830E-04 -0.176E-03
  5.700  0.102E-02  0.490E-03  0.102E-02  0.490E-03
  5.800  0.491E-02  0.332E-02  0.491E-02  0.332E-02
  5.900  0.126E-01  0.996E-02  0.126E-01  0.996E-02
  6.000  0.205E-01  0.185E-01  0.205E-01  0.185E-01
  6.100  0.222E-01  0.226E-01  0.222E-01  0.226E-01
  6.200  0.172E-01  0.191E-01  0.172E-01  0.191E-01
  6.300  0.126E-01  0.134E-01  0.126E-01  0.134E-01
  6.400  0.149E-01  0.133E-01  0.149E-01  0.133E-01
  6.500  0.239E-01  0.205E-01  0.239E-01  0.205E-01
  6.600  0.376E-01  0.329E-01  0.376E-01  0.329E-01
  6.700  0.518E-01  0.477E-01  0.518E-01  0.477E-01
  6.800  0.560E-01  0.564E-01  0.560E-01  0.564E-01
  6.900  0.430E-01  0.488E-01  0.430E-01  0.488E-01
  7.000  0.214E-01  0.283E-01  0.214E-01  0.283E-01
  7.100  0.740E-02  0.103E-01  0.740E-02  0.103E-01
  7.200  0.101E-01  0.687E-02  0.101E-01  0.687E-02
  7.300  0.298E-01  0.209E-01  0.298E-01  0.209E-01
  7.400  0.585E-01  0.480E-01  0.585E-01  0.480E-01
  7.500  0.775E-01  0.731E-01  0.775E-01  0.731E-01
  7.600  0.731E-01  0.773E-01  0.731E-01  0.773E-01
  7.700  0.555E-01  0.613E-01  0.555E-01  0.613E-01
  7.800  0.465E-01  0.465E-01  0.465E-01  0.465E-01
  7.900  0.525E-01  0.474E-01  0.525E-01  0.474E-01
  8.000  0.625E-01  0.584E-01  0.625E-01  0.584E-01
  8.100  0.622E-01  0.648E-01  0.622E-01  0.648E-01
  8.200  0.460E-01  0.562E-01  0.460E-01  0.562E-01
  8.300  0.234E-01  0.342E-01  0.234E-01  0.342E-01
  8.400  0.157E-01  0.153E-01  0.157E-01  0.153E-01
  8.500  0.384E-01  0.193E-01  0.384E-01  0.193E-01
  8.600  0.846E-01  0.535E-01  0.846E-01  0.535E-01
  8.700  0.122E+00  0.101E+00  0.122E+00  0.101E+00
  8.800  0.122E+00  0.128E+00  0.122E+00  0.128E+00
  8.900  0.932E-01  0.113E+00  0.932E-01  0.113E+00
  9.000  0.737E-01  0.800E-01  0.737E-01  0.800E-01
  9.100  0.766E-01  0.649E-01  0.766E-01  0.649E-01
  9.200  0.810E-01  0.731E-01  0.810E-01  0.731E-01
  9.300  0.677E-01  0.808E-01  0.677E-01  0.808E-01
  9.400  0.447E-01  0.703E-01  0.447E-01  0.703E-01
  9.500  0.372E-01  0.476E-01  0.372E-01  0.476E-01
  9.600  0.624E-01  0.345E-01  0.624E-01  0.345E-01
  9.700  0.111E+00  0.481E-01  0.111E+00  0.481E-01
  9.800  0.154E+00  0.859E-01  0.154E+00  0.859E-01
  9.900  0.167E+00  0.128E+00  0.167E+00  0.128E+00
 10.000  0.156E+00  0.154E+00  0.156E+00  0.154E+00
 10.100  0.140E+00  0.155E+00  0.140E+00  0.155E+00
 10.200  0.128E+00  0.139E+00  0.128E+00  0.139E+00
 10.300  0.115E+00  0.120E+00  0.115E+00  0.120E+00
 10.400  0.103E+00  0.107E+00  0.103E+00  0.107E+00
 10.500  0.993E-01  0.101E+00  0.993E-01  0.101E+00
 10.600  0.110E+00  0.979E-01  0.110E+00  0.979E-01
 10.700  0.123E+00  0.100E+00  0.123E+00  0.100E+00
 10.800  0.121E+00  0.115E+00  0.121E+00  0.115E+00
 10.900  0.974E-01  0.141E+00  0.974E-01  0.141E+00
 11.000  0.673E-01  0.155E+00  0.673E-01  0.155E+00
 11.100  0.450E-01  0.134E+00  0.450E-01  0.134E+00
 11.200  0.343E-01  0.919E-01  0.343E-01  0.919E-01
 11.300  0.296E-01  0.601E-01  0.296E-01  0.601E-01
 11.400  0.243E-01  0.516E-01  0.243E-01  0.516E-01
 11.500  0.166E-01  0.524E-01  0.166E-01  0.524E-01
 11.600  0.986E-02  0.483E-01  0.986E-02  0.483E-01
 11.700  0.771E-02  0.382E-01  0.771E-02  0.382E-01
 11.800  0.107E-01  0.269E-01  0.107E-01  0.269E-01
 11.900  0.172E-01  0.174E-01  0.172E-01  0.174E-01
 12.000  0.244E-01  0.104E-01  0.244E-01  0.104E-01
 12.100  0.299E-01  0.656E-02  0.299E-01  0.656E-02
 12.200  0.317E-01  0.624E-02  0.317E-01  0.624E-02
 12.300  0.303E-01  0.879E-02  0.303E-01  0.879E-02
 12.400  0.293E-01  0.130E-01  0.293E-01  0.130E-01
 12.500  0.334E-01  0.183E-01  0.334E-01  0.183E-01
 12.600  0.435E-01  0.239E-01  0.435E-01  0.239E-01
 12.700  0.546E-01  0.283E-01  0.546E-01  0.283E-01
 12.800  0.590E-01  0.305E-01  0.590E-01  0.305E-01
 12.900  0.543E-01  0.327E-01  0.543E-01  0.327E-01
 13.000  0.433E-01  0.390E-01  0.433E-01  0.390E-01
 13.100  0.301E-01  0.486E-01  0.301E-01  0.486E-01
 13.200  0.185E-01  0.558E-01  0.185E-01  0.558E-01
 13.300  0.117E-01  0.561E-01  0.117E-01  0.561E-01
 13.400  0.111E-01  0.496E-01  0.111E-01  0.496E-01
 13.500  0.144E-01  0.394E-01  0.144E-01  0.394E-01
 13.600  0.186E-01  0.286E-01  0.186E-01  0.286E-01
 13.700  0.225E-01  0.202E-01  0.225E-01  0.202E-01
 13.800  0.260E-01  0.164E-01  0.260E-01  0.164E-01
 13.900  0.271E-01  0.172E-01  0.271E-01  0.172E-01
 14.000  0.250E-01  0.196E-01  0.250E-01  0.196E-01
 14.100  0.229E-01  0.217E-01  0.229E-01  0.217E-01
 14.200  0.242E-01  0.252E-01  0.242E-01  0.252E-01
 14.300  0.274E-01  0.297E-01  0.274E-01  0.297E-01
 14.400  0.274E-01  0.299E-01  0.274E-01  0.299E-01
 14.500  0.221E-01  0.223E-01  0.221E-01  0.223E-01
 14.600  0.138E-01  0.120E-01  0.138E-01  0.120E-01
 14.700  0.603E-02  0.784E-02  0.603E-02  0.784E-02
 14.800  0.233E-02  0.126E-01  0.233E-02  0.126E-01
 14.900  0.571E-02  0.204E-01  0.571E-02  0.204E-01
 15.000  0.175E-01  0.234E-01  0.175E-01  0.234E-01
 15.100  0.369E-01  0.200E-01  0.369E-01  0.200E-01
 15.200  0.588E-01  0.135E-01  0.588E-01  0.135E-01
 15.300  0.721E-01  0.756E-02  0.721E-01  0.756E-02
 15.400  0.679E-01  0.432E-02  0.679E-01  0.432E-02
 15.500  0.527E-01  0.570E-02  0.527E-01  0.570E-02
 15.600  0.437E-01  0.134E-01  0.437E-01  0.134E-01
 15.700  0.460E-01  0.286E-01  0.460E-01  0.286E-01
 15.800  0.466E-01  0.489E-01  0.466E-01  0.489E-01
 15.900  0.345E-01  0.653E-01  0.345E-01  0.653E-01
 16.000  0.177E-01  0.697E-01  0.177E-01  0.697E-01
 16.100  0.144E-01  0.642E-01  0.144E-01  0.642E-01
 16.200  0.340E-01  0.554E-01  0.340E-01  0.554E-01
 16.300  0.667E-01  0.433E-01  0.667E-01  0.433E-01
 16.400  0.902E-01  0.267E-01  0.902E-01  0.267E-01
 16.500  0.915E-01  0.118E-01  0.915E-01  0.118E-01
 16.600  0.790E-01  0.922E-02  0.790E-01  0.922E-02
 16.700  0.680E-01  0.241E-01  0.680E-01  0.241E-01
 16.800  0.632E-01  0.487E-01  0.632E-01  0.487E-01
 16.900  0.629E-01  0.690E-01  0.629E-01  0.690E-01
 17.000  0.664E-01  0.772E-01  0.664E-01  0.772E-01
 17.100  0.687E-01  0.768E-01  0.687E-01  0.768E-01
 17.200  0.615E-01  0.745E-01  0.615E-01  0.745E-01
 17.300  0.446E-01  0.747E-01  0.446E-01  0.747E-01
 17.400  0.255E-01  0.781E-01  0.255E-01  0.781E-01
 17.500  0.128E-01  0.774E-01  0.128E-01  0.774E-01
 17.600  0.117E-01  0.628E-01  0.117E-01  0.628E-01
 17.700  0.210E-01  0.363E-01  0.210E-01  0.363E-01
 17.800  0.350E-01  0.134E-01  0.350E-01  0.134E-01
 17.900  0.511E-01  0.798E-02  0.511E-01  0.798E-02
 18.000  0.700E-01  0.196E-01  0.700E-01  0.196E-01
 18.100  0.868E-01  0.355E-01  0.868E-01  0.355E-01
 18.200  0.887E-01  0.443E-01  0.887E-01  0.443E-01
 18.300  0.697E-01  0.477E-01  0.697E-01  0.477E-01
 18.400  0.449E-01  0.555E-01  0.449E-01  0.555E-01
 18.500  0.373E-01  0.680E-01  0.373E-01  0.680E-01
 18.600  0.481E-01  0.713E-01  0.481E-01  0.713E-01
 18.700  0.550E-01  0.584E-01  0.550E-01  0.584E-01
 18.800  0.448E-01  0.442E-01  0.448E-01  0.442E-01
 18.900  0.286E-01  0.447E-01  0.286E-01  0.447E-01
 19.000  0.200E-01  0.523E-01  0.200E-01  0.523E-01
 19.100  0.183E-01  0.491E-01  0.183E-01  0.491E-01
 19.200  0.212E-01  0.348E-01  0.212E-01  0.348E-01
 19.300  0.327E-01  0.226E-01  0.327E-01  0.226E-01
 19.400  0.490E-01  0.186E-01  0.490E-01  0.186E-01
 19.500  0.542E-01  0.230E-01  0.542E-01  0.230E-01
 19.600  0.400E-01  0.365E-01  0.400E-01  0.365E-01
 19.700  0.176E-01  0.511E-01  0.176E-01  0.511E-01
 19.800  0.196E-02  0.508E-01  0.196E-02  0.508E-01
 19.900 -0.348E-02  0.325E-01 -0.348E-02  0.325E-01
 20.000 -0.383E-02  0.109E-01 -0.383E-02  0.109E-01
 20.100 -0.228E-02 -0.106E-02 -0.228E-02 -0.106E-02
 20.200  0.343E-02 -0.389E-02  0.343E-02 -0.389E-02
 20.300  0.160E-01 -0.349E-02  0.160E-01 -0.349E-02
 20.400  0.312E-01 -0.148E-02  0.312E-01 -0.148E-02
 20.500  0.381E-01  0.554E-02  0.381E-01  0.554E-02
 20.600  0.309E-01  0.194E-01  0.309E-01  0.194E-01
 20.700  0.172E-01  0.337E-01  0.172E-01  0.337E-01
 20.800  0.952E-02  0.370E-01  0.952E-02  0.370E-01
 20.900  0.116E-01  0.268E-01  0.116E-01  0.268E-01
 21.000  0.156E-01  0.135E-01  0.156E-01  0.135E-01
 21.100  0.133E-01  0.881E-02  0.133E-01  0.881E-02
 21.200  0.604E-02  0.126E-01  0.604E-02  0.126E-01
 21.300  0.343E-02  0.157E-01  0.343E-02  0.157E-01
 21.400  0.134E-01  0.120E-01  0.134E-01  0.120E-01
 21.500  0.346E-01  0.574E-02  0.346E-01  0.574E-02
 21.600  0.562E-01  0.440E-02  0.562E-01  0.440E-02
 21.700  0.669E-01  0.105E-01  0.669E-01  0.105E-01
 21.800  0.664E-01  0.219E-01  0.664E-01  0.219E-01
 21.900  0.649E-01  0.365E-01  0.649E-01  0.365E-01
 22.000  0.701E-01  0.518E-01  0.701E-01  0.518E-01
 22.100  0.814E-01  0.643E-01  0.814E-01  0.643E-01
 22.200  0.939E-01  0.728E-01  0.939E-01  0.728E-01
 22.300  0.978E-01  0.802E-01  0.978E-01  0.802E-01
 22.400  0.832E-01  0.893E-01  0.832E-01  0.893E-01
 22.500  0.568E-01  0.985E-01  0.568E-01  0.985E-01
 22.600  0.388E-01  0.991E-01  0.388E-01  0.991E-01
 22.700  0.366E-01  0.833E-01  0.366E-01  0.833E-01
 22.800  0.392E-01  0.591E-01  0.392E-01  0.591E-01
 22.900  0.381E-01  0.440E-01  0.381E-01  0.440E-01
 23.000  0.364E-01  0.412E-01  0.364E-01  0.412E-01
 23.100  0.369E-01  0.397E-01  0.369E-01  0.397E-01
 23.200  0.366E-01  0.365E-01  0.366E-01  0.365E-01
 23.300  0.340E-01  0.377E-01  0.340E-01  0.377E-01
 23.400  0.297E-01  0.419E-01  0.297E-01  0.419E-01
 23.500  0.230E-01  0.406E-01  0.230E-01  0.406E-01
 23.600  0.155E-01  0.323E-01  0.155E-01  0.323E-01
 23.700  0.145E-01  0.230E-01  0.145E-01  0.230E-01
 23.800  0.247E-01  0.175E-01  0.247E-01  0.175E-01
 23.900  0.373E-01  0.183E-01  0.373E-01  0.183E-01
 24.000  0.384E-01  0.271E-01  0.384E-01  0.271E-01
 24.100  0.277E-01  0.380E-01  0.277E-01  0.380E-01
 24.200  0.176E-01  0.392E-01  0.176E-01  0.392E-01
 24.300  0.144E-01  0.282E-01  0.144E-01  0.282E-01
 24.400  0.126E-01  0.168E-01  0.126E-01  0.168E-01
 24.500  0.835E-02  0.136E-01  0.835E-02  0.136E-01
 24.600  0.516E-02  0.139E-01  0.516E-02  0.139E-01
 24.700  0.671E-02  0.109E-01  0.671E-02  0.109E-01
 24.800  0.104E-01  0.651E-02  0.104E-01  0.651E-02
 24.900  0.117E-01  0.643E-02  0.117E-01  0.643E-02
 25.000  0.119E-01  0.102E-01  0.119E-01  0.102E-01
 25.100  0.166E-01  0.124E-01  0.166E-01  0.124E-01
