# E (eV)  ldosup(E)  ldosdw(E) pdosup(E)  pdosdw(E)  pdosup(E)  pdosdw(E)  pdosup(E)  pdosdw(E)  pdosup(E)  pdosdw(E)  pdosup(E)  pdosdw(E) 
  5.000 -0.280E-10 -0.109E-10 -0.933E-12 -0.348E-12 -0.872E-11 -0.338E-11 -0.872E-11 -0.338E-11 -0.933E-12 -0.348E-12 -0.872E-11 -0.338E-11
  5.100 -0.328E-09 -0.139E-09 -0.142E-10 -0.579E-11 -0.999E-10 -0.424E-10 -0.999E-10 -0.424E-10 -0.142E-10 -0.579E-11 -0.999E-10 -0.424E-10
  5.200 -0.285E-08 -0.132E-08 -0.160E-09 -0.716E-10 -0.844E-09 -0.394E-09 -0.844E-09 -0.394E-09 -0.160E-09 -0.716E-10 -0.844E-09 -0.394E-09
  5.300 -0.183E-07 -0.933E-08 -0.134E-08 -0.655E-09 -0.519E-08 -0.267E-08 -0.519E-08 -0.267E-08 -0.134E-08 -0.655E-09 -0.519E-08 -0.267E-08
  5.400 -0.844E-07 -0.478E-07 -0.811E-08 -0.439E-08 -0.227E-07 -0.130E-07 -0.227E-07 -0.130E-07 -0.811E-08 -0.439E-08 -0.227E-07 -0.130E-07
  5.500 -0.271E-06 -0.173E-06 -0.349E-07 -0.210E-07 -0.670E-07 -0.436E-07 -0.670E-07 -0.436E-07 -0.349E-07 -0.210E-07 -0.670E-07 -0.436E-07
  5.600 -0.546E-06 -0.411E-06 -0.101E-06 -0.693E-07 -0.114E-06 -0.907E-07 -0.114E-06 -0.907E-07 -0.101E-06 -0.693E-07 -0.114E-06 -0.907E-07
  5.700 -0.410E-06 -0.488E-06 -0.169E-06 -0.141E-06 -0.242E-07 -0.686E-07 -0.242E-07 -0.686E-07 -0.169E-06 -0.141E-06 -0.242E-07 -0.686E-07
  5.800  0.116E-05  0.406E-06 -0.249E-07 -0.998E-07  0.403E-06  0.202E-06  0.403E-06  0.202E-06 -0.249E-07 -0.998E-07  0.403E-06  0.202E-06
  5.900  0.439E-05  0.290E-05  0.630E-06  0.334E-06  0.104E-05  0.743E-06  0.104E-05  0.743E-06  0.630E-06  0.334E-06  0.104E-05  0.743E-06
  6.000  0.704E-05  0.574E-05  0.167E-05  0.122E-05  0.123E-05  0.110E-05  0.123E-05  0.110E-05  0.167E-05  0.122E-05  0.123E-05  0.110E-05
  6.100  0.645E-05  0.622E-05  0.226E-05  0.197E-05  0.646E-06  0.756E-06  0.646E-06  0.756E-06  0.226E-05  0.197E-05  0.646E-06  0.756E-06
  6.200  0.508E-05  0.467E-05  0.170E-05  0.180E-05  0.560E-06  0.358E-06  0.560E-06  0.358E-06  0.170E-05  0.180E-05  0.560E-06  0.358E-06
  6.300  0.107E-04  0.692E-05  0.762E-06  0.891E-06  0.307E-05  0.171E-05  0.307E-05  0.171E-05  0.762E-06  0.891E-06  0.307E-05  0.171E-05
  6.400  0.320E-04  0.202E-04  0.234E-05  0.120E-05  0.910E-05  0.594E-05  0.910E-05  0.594E-05  0.234E-05  0.120E-05  0.910E-05  0.594E-05
  6.500  0.830E-04  0.543E-04  0.114E-04  0.672E-05  0.201E-04  0.136E-04  0.201E-04  0.136E-04  0.114E-04  0.672E-05  0.201E-04  0.136E-04
  6.600  0.182E-03  0.126E-03  0.307E-04  0.213E-04  0.401E-04  0.278E-04  0.401E-04  0.278E-04  0.307E-04  0.213E-04  0.401E-04  0.278E-04
  6.700  0.304E-03  0.231E-03  0.511E-04  0.410E-04  0.672E-04  0.497E-04  0.672E-04  0.497E-04  0.511E-04  0.410E-04  0.672E-04  0.497E-04
  6.800  0.360E-03  0.307E-03  0.554E-04  0.507E-04  0.830E-04  0.685E-04  0.830E-04  0.685E-04  0.554E-04  0.507E-04  0.830E-04  0.685E-04
  6.900  0.283E-03  0.278E-03  0.409E-04  0.418E-04  0.672E-04  0.647E-04  0.672E-04  0.647E-04  0.409E-04  0.418E-04  0.672E-04  0.647E-04
  7.000  0.131E-03  0.157E-03  0.285E-04  0.274E-04  0.245E-04  0.340E-04  0.245E-04  0.340E-04  0.285E-04  0.274E-04  0.245E-04  0.340E-04
  7.100  0.437E-04  0.496E-04  0.365E-04  0.278E-04 -0.977E-05 -0.199E-05 -0.977E-05 -0.199E-05  0.365E-04  0.278E-04 -0.977E-05 -0.199E-05
  7.200  0.174E-03  0.814E-04  0.646E-04  0.467E-04  0.149E-04 -0.397E-05  0.149E-04 -0.397E-05  0.646E-04  0.467E-04  0.149E-04 -0.397E-05
  7.300  0.627E-03  0.365E-03  0.116E-03  0.835E-04  0.131E-03  0.659E-04  0.131E-03  0.659E-04  0.116E-03  0.835E-04  0.131E-03  0.659E-04
  7.400  0.129E-02  0.896E-03  0.198E-03  0.148E-03  0.297E-03  0.200E-03  0.297E-03  0.200E-03  0.198E-03  0.148E-03  0.297E-03  0.200E-03
  7.500  0.174E-02  0.140E-02  0.271E-03  0.223E-03  0.398E-03  0.317E-03  0.398E-03  0.317E-03  0.271E-03  0.223E-03  0.398E-03  0.317E-03
  7.600  0.172E-02  0.151E-02  0.273E-03  0.252E-03  0.390E-03  0.337E-03  0.390E-03  0.337E-03  0.273E-03  0.252E-03  0.390E-03  0.337E-03
  7.700  0.156E-02  0.133E-02  0.213E-03  0.209E-03  0.379E-03  0.304E-03  0.379E-03  0.304E-03  0.213E-03  0.209E-03  0.379E-03  0.304E-03
  7.800  0.184E-02  0.134E-02  0.208E-03  0.167E-03  0.474E-03  0.335E-03  0.474E-03  0.335E-03  0.208E-03  0.167E-03  0.474E-03  0.335E-03
  7.900  0.263E-02  0.183E-02  0.375E-03  0.242E-03  0.626E-03  0.448E-03  0.626E-03  0.448E-03  0.375E-03  0.242E-03  0.626E-03  0.448E-03
  8.000  0.344E-02  0.259E-02  0.686E-03  0.477E-03  0.690E-03  0.546E-03  0.690E-03  0.546E-03  0.686E-03  0.477E-03  0.690E-03  0.546E-03
  8.100  0.355E-02  0.308E-02  0.909E-03  0.741E-03  0.577E-03  0.531E-03  0.577E-03  0.531E-03  0.909E-03  0.741E-03  0.577E-03  0.531E-03
  8.200  0.254E-02  0.272E-02  0.797E-03  0.789E-03  0.315E-03  0.380E-03  0.315E-03  0.380E-03  0.797E-03  0.789E-03  0.315E-03  0.380E-03
  8.300  0.107E-02  0.155E-02  0.416E-03  0.530E-03  0.805E-04  0.162E-03  0.805E-04  0.162E-03  0.416E-03  0.530E-03  0.805E-04  0.162E-03
  8.400  0.930E-03  0.558E-03  0.166E-03  0.195E-03  0.199E-03  0.562E-04  0.199E-03  0.562E-04  0.166E-03  0.195E-03  0.199E-03  0.562E-04
  8.500  0.385E-02  0.128E-02  0.435E-03  0.156E-03  0.995E-03  0.324E-03  0.995E-03  0.324E-03  0.435E-03  0.156E-03  0.995E-03  0.324E-03
  8.600  0.949E-02  0.468E-02  0.121E-02  0.615E-03  0.236E-02  0.115E-02  0.236E-02  0.115E-02  0.121E-02  0.615E-03  0.236E-02  0.115E-02
  8.700  0.143E-01  0.955E-02  0.199E-02  0.137E-02  0.343E-02  0.227E-02  0.343E-02  0.227E-02  0.199E-02  0.137E-02  0.343E-02  0.227E-02
  8.800  0.148E-01  0.125E-01  0.236E-02  0.193E-02  0.337E-02  0.289E-02  0.337E-02  0.289E-02  0.236E-02  0.193E-02  0.337E-02  0.289E-02
  8.900  0.129E-01  0.116E-01  0.251E-02  0.206E-02  0.264E-02  0.248E-02  0.264E-02  0.248E-02  0.251E-02  0.206E-02  0.264E-02  0.248E-02
  9.000  0.138E-01  0.942E-02  0.290E-02  0.215E-02  0.266E-02  0.171E-02  0.266E-02  0.171E-02  0.290E-02  0.215E-02  0.266E-02  0.171E-02
  9.100  0.181E-01  0.102E-01  0.334E-02  0.250E-02  0.381E-02  0.172E-02  0.381E-02  0.172E-02  0.334E-02  0.250E-02  0.381E-02  0.172E-02
  9.200  0.208E-01  0.138E-01  0.330E-02  0.285E-02  0.474E-02  0.271E-02  0.474E-02  0.271E-02  0.330E-02  0.285E-02  0.474E-02  0.271E-02
  9.300  0.177E-01  0.165E-01  0.291E-02  0.275E-02  0.396E-02  0.366E-02  0.396E-02  0.366E-02  0.291E-02  0.275E-02  0.396E-02  0.366E-02
  9.400  0.117E-01  0.151E-01  0.308E-02  0.231E-02  0.185E-02  0.350E-02  0.185E-02  0.350E-02  0.308E-02  0.231E-02  0.185E-02  0.350E-02
  9.500  0.121E-01  0.111E-01  0.446E-02  0.227E-02  0.105E-02  0.220E-02  0.105E-02  0.220E-02  0.446E-02  0.227E-02  0.105E-02  0.220E-02
  9.600  0.271E-01  0.950E-02  0.618E-02  0.339E-02  0.491E-02  0.907E-03  0.491E-02  0.907E-03  0.618E-02  0.339E-02  0.491E-02  0.907E-03
  9.700  0.560E-01  0.150E-01  0.670E-02  0.525E-02  0.142E-01  0.150E-02  0.142E-01  0.150E-02  0.670E-02  0.525E-02  0.142E-01  0.150E-02
  9.800  0.886E-01  0.287E-01  0.641E-02  0.642E-02  0.253E-01  0.528E-02  0.253E-01  0.528E-02  0.641E-02  0.642E-02  0.253E-01  0.528E-02
  9.900  0.118E+00  0.474E-01  0.922E-02  0.652E-02  0.333E-01  0.115E-01  0.333E-01  0.115E-01  0.922E-02  0.652E-02  0.333E-01  0.115E-01
 10.000  0.154E+00  0.651E-01  0.211E-01  0.690E-02  0.371E-01  0.171E-01  0.371E-01  0.171E-01  0.211E-01  0.690E-02  0.371E-01  0.171E-01
 10.100  0.205E+00  0.770E-01  0.442E-01  0.882E-02  0.388E-01  0.198E-01  0.388E-01  0.198E-01  0.442E-01  0.882E-02  0.388E-01  0.198E-01
 10.200  0.264E+00  0.852E-01  0.710E-01  0.126E-01  0.407E-01  0.200E-01  0.407E-01  0.200E-01  0.710E-01  0.126E-01  0.407E-01  0.200E-01
 10.300  0.312E+00  0.102E+00  0.886E-01  0.198E-01  0.449E-01  0.207E-01  0.449E-01  0.207E-01  0.886E-01  0.198E-01  0.449E-01  0.207E-01
 10.400  0.348E+00  0.140E+00  0.953E-01  0.333E-01  0.525E-01  0.244E-01  0.525E-01  0.244E-01  0.953E-01  0.333E-01  0.525E-01  0.244E-01
 10.500  0.390E+00  0.195E+00  0.102E+00  0.517E-01  0.621E-01  0.305E-01  0.621E-01  0.305E-01  0.102E+00  0.517E-01  0.621E-01  0.305E-01
 10.600  0.451E+00  0.245E+00  0.115E+00  0.673E-01  0.739E-01  0.367E-01  0.739E-01  0.367E-01  0.115E+00  0.673E-01  0.739E-01  0.367E-01
 10.700  0.528E+00  0.282E+00  0.125E+00  0.759E-01  0.929E-01  0.433E-01  0.929E-01  0.433E-01  0.125E+00  0.759E-01  0.929E-01  0.433E-01
 10.800  0.621E+00  0.329E+00  0.128E+00  0.864E-01  0.122E+00  0.521E-01  0.122E+00  0.521E-01  0.128E+00  0.864E-01  0.122E+00  0.521E-01
 10.900  0.721E+00  0.394E+00  0.128E+00  0.106E+00  0.155E+00  0.604E-01  0.155E+00  0.604E-01  0.128E+00  0.106E+00  0.155E+00  0.604E-01
 11.000  0.791E+00  0.429E+00  0.130E+00  0.123E+00  0.177E+00  0.614E-01  0.177E+00  0.614E-01  0.130E+00  0.123E+00  0.177E+00  0.614E-01
 11.100  0.815E+00  0.409E+00  0.130E+00  0.119E+00  0.185E+00  0.565E-01  0.185E+00  0.565E-01  0.130E+00  0.119E+00  0.185E+00  0.565E-01
 11.200  0.822E+00  0.399E+00  0.128E+00  0.107E+00  0.189E+00  0.614E-01  0.189E+00  0.614E-01  0.128E+00  0.107E+00  0.189E+00  0.614E-01
 11.300  0.832E+00  0.483E+00  0.126E+00  0.109E+00  0.193E+00  0.884E-01  0.193E+00  0.884E-01  0.126E+00  0.109E+00  0.193E+00  0.884E-01
 11.400  0.823E+00  0.629E+00  0.125E+00  0.124E+00  0.191E+00  0.127E+00  0.191E+00  0.127E+00  0.125E+00  0.124E+00  0.191E+00  0.127E+00
 11.500  0.775E+00  0.730E+00  0.123E+00  0.133E+00  0.177E+00  0.154E+00  0.177E+00  0.154E+00  0.123E+00  0.133E+00  0.177E+00  0.154E+00
 11.600  0.716E+00  0.755E+00  0.122E+00  0.128E+00  0.157E+00  0.167E+00  0.157E+00  0.167E+00  0.122E+00  0.128E+00  0.157E+00  0.167E+00
 11.700  0.695E+00  0.762E+00  0.130E+00  0.117E+00  0.145E+00  0.176E+00  0.145E+00  0.176E+00  0.130E+00  0.117E+00  0.145E+00  0.176E+00
 11.800  0.737E+00  0.783E+00  0.141E+00  0.112E+00  0.151E+00  0.187E+00  0.151E+00  0.187E+00  0.141E+00  0.112E+00  0.151E+00  0.187E+00
 11.900  0.808E+00  0.778E+00  0.141E+00  0.107E+00  0.175E+00  0.188E+00  0.175E+00  0.188E+00  0.141E+00  0.107E+00  0.175E+00  0.188E+00
 12.000  0.856E+00  0.727E+00  0.125E+00  0.101E+00  0.202E+00  0.175E+00  0.202E+00  0.175E+00  0.125E+00  0.101E+00  0.202E+00  0.175E+00
 12.100  0.892E+00  0.680E+00  0.114E+00  0.103E+00  0.221E+00  0.158E+00  0.221E+00  0.158E+00  0.114E+00  0.103E+00  0.221E+00  0.158E+00
 12.200  0.949E+00  0.677E+00  0.121E+00  0.120E+00  0.236E+00  0.146E+00  0.236E+00  0.146E+00  0.121E+00  0.120E+00  0.236E+00  0.146E+00
 12.300  0.101E+01  0.704E+00  0.136E+00  0.133E+00  0.247E+00  0.146E+00  0.247E+00  0.146E+00  0.136E+00  0.133E+00  0.247E+00  0.146E+00
 12.400  0.105E+01  0.730E+00  0.146E+00  0.123E+00  0.253E+00  0.161E+00  0.253E+00  0.161E+00  0.146E+00  0.123E+00  0.253E+00  0.161E+00
 12.500  0.109E+01  0.758E+00  0.159E+00  0.100E+00  0.258E+00  0.186E+00  0.258E+00  0.186E+00  0.159E+00  0.100E+00  0.258E+00  0.186E+00
 12.600  0.118E+01  0.810E+00  0.180E+00  0.944E-01  0.274E+00  0.207E+00  0.274E+00  0.207E+00  0.180E+00  0.944E-01  0.274E+00  0.207E+00
 12.700  0.133E+01  0.892E+00  0.204E+00  0.110E+00  0.307E+00  0.224E+00  0.307E+00  0.224E+00  0.204E+00  0.110E+00  0.307E+00  0.224E+00
 12.800  0.147E+01  0.963E+00  0.219E+00  0.124E+00  0.344E+00  0.239E+00  0.344E+00  0.239E+00  0.219E+00  0.124E+00  0.344E+00  0.239E+00
 12.900  0.151E+01  0.995E+00  0.223E+00  0.122E+00  0.356E+00  0.250E+00  0.356E+00  0.250E+00  0.223E+00  0.122E+00  0.356E+00  0.250E+00
 13.000  0.140E+01  0.102E+01  0.214E+00  0.124E+00  0.322E+00  0.257E+00  0.322E+00  0.257E+00  0.214E+00  0.124E+00  0.322E+00  0.257E+00
 13.100  0.115E+01  0.107E+01  0.192E+00  0.145E+00  0.255E+00  0.261E+00  0.255E+00  0.261E+00  0.192E+00  0.145E+00  0.255E+00  0.261E+00
 13.200  0.898E+00  0.115E+01  0.168E+00  0.173E+00  0.188E+00  0.266E+00  0.188E+00  0.266E+00  0.168E+00  0.173E+00  0.188E+00  0.266E+00
 13.300  0.755E+00  0.122E+01  0.160E+00  0.196E+00  0.145E+00  0.277E+00  0.145E+00  0.277E+00  0.160E+00  0.196E+00  0.145E+00  0.277E+00
 13.400  0.759E+00  0.130E+01  0.185E+00  0.214E+00  0.130E+00  0.292E+00  0.130E+00  0.292E+00  0.185E+00  0.214E+00  0.130E+00  0.292E+00
 13.500  0.885E+00  0.134E+01  0.239E+00  0.227E+00  0.136E+00  0.295E+00  0.136E+00  0.295E+00  0.239E+00  0.227E+00  0.136E+00  0.295E+00
 13.600  0.107E+01  0.126E+01  0.307E+00  0.227E+00  0.151E+00  0.269E+00  0.151E+00  0.269E+00  0.307E+00  0.227E+00  0.151E+00  0.269E+00
 13.700  0.122E+01  0.108E+01  0.372E+00  0.208E+00  0.158E+00  0.222E+00  0.158E+00  0.222E+00  0.372E+00  0.208E+00  0.158E+00  0.222E+00
 13.800  0.124E+01  0.907E+00  0.410E+00  0.185E+00  0.140E+00  0.179E+00  0.140E+00  0.179E+00  0.410E+00  0.185E+00  0.140E+00  0.179E+00
 13.900  0.114E+01  0.826E+00  0.408E+00  0.181E+00  0.109E+00  0.155E+00  0.109E+00  0.155E+00  0.408E+00  0.181E+00  0.109E+00  0.155E+00
 14.000  0.106E+01  0.823E+00  0.380E+00  0.207E+00  0.986E-01  0.136E+00  0.986E-01  0.136E+00  0.380E+00  0.207E+00  0.986E-01  0.136E+00
 14.100  0.108E+01  0.865E+00  0.354E+00  0.253E+00  0.125E+00  0.120E+00  0.125E+00  0.120E+00  0.354E+00  0.253E+00  0.125E+00  0.120E+00
 14.200  0.117E+01  0.980E+00  0.335E+00  0.310E+00  0.166E+00  0.120E+00  0.166E+00  0.120E+00  0.335E+00  0.310E+00  0.166E+00  0.120E+00
 14.300  0.121E+01  0.115E+01  0.317E+00  0.370E+00  0.191E+00  0.137E+00  0.191E+00  0.137E+00  0.317E+00  0.370E+00  0.191E+00  0.137E+00
 14.400  0.128E+01  0.123E+01  0.312E+00  0.408E+00  0.218E+00  0.139E+00  0.218E+00  0.139E+00  0.312E+00  0.408E+00  0.218E+00  0.139E+00
 14.500  0.149E+01  0.113E+01  0.331E+00  0.399E+00  0.278E+00  0.111E+00  0.278E+00  0.111E+00  0.331E+00  0.399E+00  0.278E+00  0.111E+00
 14.600  0.175E+01  0.954E+00  0.343E+00  0.357E+00  0.354E+00  0.798E-01  0.354E+00  0.798E-01  0.343E+00  0.357E+00  0.354E+00  0.798E-01
 14.700  0.174E+01  0.900E+00  0.300E+00  0.321E+00  0.381E+00  0.863E-01  0.381E+00  0.863E-01  0.300E+00  0.321E+00  0.381E+00  0.863E-01
 14.800  0.136E+01  0.101E+01  0.199E+00  0.305E+00  0.319E+00  0.133E+00  0.319E+00  0.133E+00  0.199E+00  0.305E+00  0.319E+00  0.133E+00
 14.900  0.784E+00  0.112E+01  0.932E-01  0.292E+00  0.199E+00  0.179E+00  0.199E+00  0.179E+00  0.932E-01  0.292E+00  0.199E+00  0.179E+00
 15.000  0.333E+00  0.113E+01  0.317E-01  0.272E+00  0.899E-01  0.196E+00  0.899E-01  0.196E+00  0.317E-01  0.272E+00  0.899E-01  0.196E+00
 15.100  0.143E+00  0.116E+01  0.201E-01  0.266E+00  0.343E-01  0.209E+00  0.343E-01  0.209E+00  0.201E-01  0.266E+00  0.343E-01  0.209E+00
 15.200  0.146E+00  0.133E+01  0.334E-01  0.279E+00  0.262E-01  0.258E+00  0.262E-01  0.258E+00  0.334E-01  0.279E+00  0.262E-01  0.258E+00
 15.300  0.190E+00  0.155E+01  0.440E-01  0.279E+00  0.341E-01  0.332E+00  0.341E-01  0.332E+00  0.440E-01  0.279E+00  0.341E-01  0.332E+00
 15.400  0.181E+00  0.158E+01  0.393E-01  0.233E+00  0.341E-01  0.371E+00  0.341E-01  0.371E+00  0.393E-01  0.233E+00  0.341E-01  0.371E+00
 15.500  0.121E+00  0.130E+01  0.245E-01  0.153E+00  0.241E-01  0.333E+00  0.241E-01  0.333E+00  0.245E-01  0.153E+00  0.241E-01  0.333E+00
 15.600  0.678E-01  0.866E+00  0.121E-01  0.788E-01  0.145E-01  0.236E+00  0.145E-01  0.236E+00  0.121E-01  0.788E-01  0.145E-01  0.236E+00
 15.700  0.486E-01  0.485E+00  0.773E-02  0.413E-01  0.111E-01  0.134E+00  0.111E-01  0.134E+00  0.773E-02  0.413E-01  0.111E-01  0.134E+00
 15.800  0.472E-01  0.285E+00  0.780E-02  0.379E-01  0.105E-01  0.699E-01  0.105E-01  0.699E-01  0.780E-02  0.379E-01  0.105E-01  0.699E-01
 15.900  0.398E-01  0.225E+00  0.716E-02  0.447E-01  0.848E-02  0.452E-01  0.848E-02  0.452E-01  0.716E-02  0.447E-01  0.848E-02  0.452E-01
 16.000  0.260E-01  0.195E+00  0.527E-02  0.418E-01  0.517E-02  0.370E-01  0.517E-02  0.370E-01  0.527E-02  0.418E-01  0.517E-02  0.370E-01
 16.100  0.225E-01  0.146E+00  0.495E-02  0.290E-01  0.421E-02  0.294E-01  0.421E-02  0.294E-01  0.495E-02  0.290E-01  0.421E-02  0.294E-01
 16.200  0.408E-01  0.987E-01  0.830E-02  0.171E-01  0.807E-02  0.215E-01  0.807E-02  0.215E-01  0.830E-02  0.171E-01  0.807E-02  0.215E-01
 16.300  0.740E-01  0.679E-01  0.141E-01  0.112E-01  0.153E-01  0.152E-01  0.153E-01  0.152E-01  0.141E-01  0.112E-01  0.153E-01  0.152E-01
 16.400  0.995E-01  0.452E-01  0.183E-01  0.822E-02  0.210E-01  0.960E-02  0.210E-01  0.960E-02  0.183E-01  0.822E-02  0.210E-01  0.960E-02
 16.500  0.100E+00  0.259E-01  0.179E-01  0.552E-02  0.214E-01  0.496E-02  0.214E-01  0.496E-02  0.179E-01  0.552E-02  0.214E-01  0.496E-02
 16.600  0.816E-01  0.211E-01  0.141E-01  0.460E-02  0.178E-01  0.397E-02  0.178E-01  0.397E-02  0.141E-01  0.460E-02  0.178E-01  0.397E-02
 16.700  0.625E-01  0.406E-01  0.104E-01  0.777E-02  0.139E-01  0.837E-02  0.139E-01  0.837E-02  0.104E-01  0.777E-02  0.139E-01  0.837E-02
 16.800  0.510E-01  0.755E-01  0.815E-02  0.138E-01  0.116E-01  0.160E-01  0.116E-01  0.160E-01  0.815E-02  0.138E-01  0.116E-01  0.160E-01
 16.900  0.451E-01  0.103E+00  0.711E-02  0.185E-01  0.103E-01  0.220E-01  0.103E-01  0.220E-01  0.711E-02  0.185E-01  0.103E-01  0.220E-01
 17.000  0.431E-01  0.109E+00  0.684E-02  0.191E-01  0.981E-02  0.237E-01  0.981E-02  0.237E-01  0.684E-02  0.191E-01  0.981E-02  0.237E-01
 17.100  0.420E-01  0.992E-01  0.683E-02  0.167E-01  0.945E-02  0.219E-01  0.945E-02  0.219E-01  0.683E-02  0.167E-01  0.945E-02  0.219E-01
 17.200  0.368E-01  0.848E-01  0.628E-02  0.136E-01  0.808E-02  0.192E-01  0.808E-02  0.192E-01  0.628E-02  0.136E-01  0.808E-02  0.192E-01
 17.300  0.271E-01  0.741E-01  0.502E-02  0.114E-01  0.569E-02  0.171E-01  0.569E-02  0.171E-01  0.502E-02  0.114E-01  0.569E-02  0.171E-01
 17.400  0.173E-01  0.689E-01  0.357E-02  0.104E-01  0.339E-02  0.160E-01  0.339E-02  0.160E-01  0.357E-02  0.104E-01  0.339E-02  0.160E-01
 17.500  0.115E-01  0.644E-01  0.254E-02  0.984E-02  0.214E-02  0.149E-01  0.214E-02  0.149E-01  0.254E-02  0.984E-02  0.214E-02  0.149E-01
 17.600  0.113E-01  0.529E-01  0.232E-02  0.845E-02  0.224E-02  0.120E-01  0.224E-02  0.120E-01  0.232E-02  0.845E-02  0.224E-02  0.120E-01
 17.700  0.149E-01  0.340E-01  0.273E-02  0.588E-02  0.315E-02  0.742E-02  0.315E-02  0.742E-02  0.273E-02  0.588E-02  0.315E-02  0.742E-02
 17.800  0.185E-01  0.172E-01  0.317E-02  0.339E-02  0.404E-02  0.348E-02  0.404E-02  0.348E-02  0.317E-02  0.339E-02  0.404E-02  0.348E-02
 17.900  0.216E-01  0.118E-01  0.352E-02  0.244E-02  0.486E-02  0.231E-02  0.486E-02  0.231E-02  0.352E-02  0.244E-02  0.486E-02  0.231E-02
 18.000  0.272E-01  0.173E-01  0.419E-02  0.307E-02  0.627E-02  0.372E-02  0.627E-02  0.372E-02  0.419E-02  0.307E-02  0.627E-02  0.372E-02
 18.100  0.345E-01  0.248E-01  0.509E-02  0.395E-02  0.809E-02  0.564E-02  0.809E-02  0.564E-02  0.509E-02  0.395E-02  0.809E-02  0.564E-02
 18.200  0.367E-01  0.272E-01  0.529E-02  0.404E-02  0.872E-02  0.636E-02  0.872E-02  0.636E-02  0.529E-02  0.404E-02  0.872E-02  0.636E-02
 18.300  0.295E-01  0.266E-01  0.417E-02  0.377E-02  0.705E-02  0.636E-02  0.705E-02  0.636E-02  0.417E-02  0.377E-02  0.705E-02  0.636E-02
 18.400  0.186E-01  0.302E-01  0.262E-02  0.425E-02  0.445E-02  0.722E-02  0.445E-02  0.722E-02  0.262E-02  0.425E-02  0.445E-02  0.722E-02
 18.500  0.147E-01  0.374E-01  0.219E-02  0.535E-02  0.345E-02  0.891E-02  0.345E-02  0.891E-02  0.219E-02  0.535E-02  0.345E-02  0.891E-02
 18.600  0.196E-01  0.394E-01  0.310E-02  0.566E-02  0.446E-02  0.935E-02  0.446E-02  0.935E-02  0.310E-02  0.566E-02  0.446E-02  0.935E-02
 18.700  0.239E-01  0.318E-01  0.386E-02  0.458E-02  0.538E-02  0.756E-02  0.538E-02  0.756E-02  0.386E-02  0.458E-02  0.538E-02  0.756E-02
 18.800  0.204E-01  0.240E-01  0.330E-02  0.352E-02  0.460E-02  0.564E-02  0.460E-02  0.564E-02  0.330E-02  0.352E-02  0.460E-02  0.564E-02
 18.900  0.127E-01  0.253E-01  0.198E-02  0.386E-02  0.291E-02  0.587E-02  0.291E-02  0.587E-02  0.198E-02  0.386E-02  0.291E-02  0.587E-02
 19.000  0.705E-02  0.310E-01  0.999E-03  0.477E-02  0.168E-02  0.716E-02  0.168E-02  0.716E-02  0.999E-03  0.477E-02  0.168E-02  0.716E-02
 19.100  0.490E-02  0.294E-01  0.659E-03  0.448E-02  0.119E-02  0.683E-02  0.119E-02  0.683E-02  0.659E-03  0.448E-02  0.119E-02  0.683E-02
 19.200  0.552E-02  0.196E-01  0.784E-03  0.291E-02  0.132E-02  0.460E-02  0.132E-02  0.460E-02  0.784E-03  0.291E-02  0.132E-02  0.460E-02
 19.300  0.940E-02  0.100E-01  0.137E-02  0.141E-02  0.222E-02  0.239E-02  0.222E-02  0.239E-02  0.137E-02  0.141E-02  0.222E-02  0.239E-02
 19.400  0.151E-01  0.595E-02  0.219E-02  0.788E-03  0.356E-02  0.146E-02  0.356E-02  0.146E-02  0.219E-02  0.788E-03  0.356E-02  0.146E-02
 19.500  0.178E-01  0.770E-02  0.260E-02  0.992E-03  0.420E-02  0.191E-02  0.420E-02  0.191E-02  0.260E-02  0.992E-03  0.420E-02  0.191E-02
 19.600  0.148E-01  0.144E-01  0.219E-02  0.184E-02  0.348E-02  0.357E-02  0.348E-02  0.357E-02  0.219E-02  0.184E-02  0.348E-02  0.357E-02
 19.700  0.867E-02  0.221E-01  0.129E-02  0.283E-02  0.203E-02  0.549E-02  0.203E-02  0.549E-02  0.129E-02  0.283E-02  0.203E-02  0.549E-02
 19.800  0.338E-02  0.242E-01  0.479E-03  0.313E-02  0.806E-03  0.597E-02  0.806E-03  0.597E-02  0.479E-03  0.313E-02  0.806E-03  0.597E-02
 19.900  0.476E-03  0.183E-01  0.279E-04  0.243E-02  0.140E-03  0.449E-02  0.140E-03  0.449E-02  0.279E-04  0.243E-02  0.140E-03  0.449E-02
 20.000 -0.668E-03  0.942E-02 -0.126E-03  0.128E-02 -0.139E-03  0.229E-02 -0.139E-03  0.229E-02 -0.126E-03  0.128E-02 -0.139E-03  0.229E-02
 20.100 -0.799E-03  0.273E-02 -0.128E-03  0.381E-03 -0.181E-03  0.657E-03 -0.181E-03  0.657E-03 -0.128E-03  0.381E-03 -0.181E-03  0.657E-03
 20.200  0.248E-03 -0.414E-03 -0.893E-05 -0.542E-04  0.886E-04 -0.102E-03  0.886E-04 -0.102E-03 -0.893E-05 -0.542E-04  0.886E-04 -0.102E-03
 20.300  0.307E-02 -0.133E-02  0.317E-03 -0.179E-03  0.812E-03 -0.323E-03  0.812E-03 -0.323E-03  0.317E-03 -0.179E-03  0.812E-03 -0.323E-03
 20.400  0.714E-02 -0.102E-02  0.841E-03 -0.147E-03  0.182E-02 -0.242E-03  0.182E-02 -0.242E-03  0.841E-03 -0.147E-03  0.182E-02 -0.242E-03
 20.500  0.101E-01  0.973E-03  0.129E-02  0.811E-04  0.250E-02  0.270E-03  0.250E-02  0.270E-03  0.129E-02  0.811E-04  0.250E-02  0.270E-03
 20.600  0.962E-02  0.545E-02  0.133E-02  0.633E-03  0.232E-02  0.140E-02  0.232E-02  0.140E-02  0.133E-02  0.633E-03  0.232E-02  0.140E-02
 20.700  0.639E-02  0.111E-01  0.937E-03  0.138E-02  0.151E-02  0.276E-02  0.151E-02  0.276E-02  0.937E-03  0.138E-02  0.151E-02  0.276E-02
 20.800  0.334E-02  0.140E-01  0.484E-03  0.184E-02  0.792E-03  0.344E-02  0.792E-03  0.344E-02  0.484E-03  0.184E-02  0.792E-03  0.344E-02
 20.900  0.243E-02  0.119E-01  0.273E-03  0.163E-02  0.627E-03  0.288E-02  0.627E-03  0.288E-02  0.273E-03  0.163E-02  0.627E-03  0.288E-02
 21.000  0.273E-02  0.705E-02  0.257E-03  0.977E-03  0.737E-03  0.170E-02  0.737E-03  0.170E-02  0.257E-03  0.977E-03  0.737E-03  0.170E-02
 21.100  0.232E-02  0.375E-02  0.224E-03  0.443E-03  0.625E-03  0.955E-03  0.625E-03  0.955E-03  0.224E-03  0.443E-03  0.625E-03  0.955E-03
 21.200  0.106E-02  0.336E-02  0.132E-03  0.292E-03  0.265E-03  0.926E-03  0.265E-03  0.926E-03  0.132E-03  0.292E-03  0.265E-03  0.926E-03
 21.300  0.756E-03  0.364E-02  0.117E-03  0.309E-03  0.174E-03  0.101E-02  0.174E-03  0.101E-02  0.117E-03  0.309E-03  0.174E-03  0.101E-02
 21.400  0.318E-02  0.266E-02  0.254E-03  0.253E-03  0.890E-03  0.718E-03  0.890E-03  0.718E-03  0.254E-03  0.253E-03  0.890E-03  0.718E-03
 21.500  0.817E-02  0.128E-02  0.422E-03  0.171E-03  0.244E-02  0.312E-03  0.244E-02  0.312E-03  0.422E-03  0.171E-03  0.244E-02  0.312E-03
 21.600  0.133E-01  0.157E-02  0.439E-03  0.239E-03  0.415E-02  0.366E-03  0.415E-02  0.366E-03  0.439E-03  0.239E-03  0.415E-02  0.366E-03
 21.700  0.158E-01  0.418E-02  0.282E-03  0.437E-03  0.507E-02  0.110E-02  0.507E-02  0.110E-02  0.282E-03  0.437E-03  0.507E-02  0.110E-02
 21.800  0.149E-01  0.804E-02  0.991E-04  0.548E-03  0.491E-02  0.231E-02  0.491E-02  0.231E-02  0.991E-04  0.548E-03  0.491E-02  0.231E-02
 21.900  0.129E-01  0.119E-01  0.761E-05  0.433E-03  0.430E-02  0.367E-02  0.430E-02  0.367E-02  0.761E-05  0.433E-03  0.430E-02  0.367E-02
 22.000  0.119E-01  0.149E-01  0.409E-05  0.201E-03  0.397E-02  0.484E-02  0.397E-02  0.484E-02  0.409E-05  0.201E-03  0.397E-02  0.484E-02
 22.100  0.126E-01  0.167E-01  0.361E-04  0.327E-04  0.418E-02  0.554E-02  0.418E-02  0.554E-02  0.361E-04  0.327E-04  0.418E-02  0.554E-02
 22.200  0.143E-01  0.171E-01  0.728E-04 -0.140E-04  0.470E-02  0.571E-02  0.470E-02  0.571E-02  0.728E-04 -0.140E-04  0.470E-02  0.571E-02
 22.300  0.151E-01  0.169E-01  0.976E-04  0.805E-05  0.496E-02  0.563E-02  0.496E-02  0.563E-02  0.976E-04  0.805E-05  0.496E-02  0.563E-02
 22.400  0.132E-01  0.171E-01  0.948E-04  0.479E-04  0.435E-02  0.568E-02  0.435E-02  0.568E-02  0.948E-04  0.479E-04  0.435E-02  0.568E-02
 22.500  0.953E-02  0.180E-01  0.725E-04  0.871E-04  0.313E-02  0.593E-02  0.313E-02  0.593E-02  0.725E-04  0.871E-04  0.313E-02  0.593E-02
 22.600  0.683E-02  0.181E-01  0.646E-04  0.110E-03  0.223E-02  0.596E-02  0.223E-02  0.596E-02  0.646E-04  0.110E-03  0.223E-02  0.596E-02
 22.700  0.624E-02  0.159E-01  0.845E-04  0.103E-03  0.203E-02  0.524E-02  0.203E-02  0.524E-02  0.845E-04  0.103E-03  0.203E-02  0.524E-02
 22.800  0.631E-02  0.123E-01  0.103E-03  0.830E-04  0.203E-02  0.404E-02  0.203E-02  0.404E-02  0.103E-03  0.830E-04  0.203E-02  0.404E-02
 22.900  0.615E-02  0.977E-02  0.939E-04  0.846E-04  0.199E-02  0.320E-02  0.199E-02  0.320E-02  0.939E-04  0.846E-04  0.199E-02  0.320E-02
 23.000  0.631E-02  0.891E-02  0.735E-04  0.107E-03  0.206E-02  0.290E-02  0.206E-02  0.290E-02  0.735E-04  0.107E-03  0.206E-02  0.290E-02
 23.100  0.663E-02  0.820E-02  0.702E-04  0.115E-03  0.216E-02  0.266E-02  0.216E-02  0.266E-02  0.702E-04  0.115E-03  0.216E-02  0.266E-02
 23.200  0.635E-02  0.755E-02  0.803E-04  0.106E-03  0.206E-02  0.245E-02  0.206E-02  0.245E-02  0.803E-04  0.106E-03  0.206E-02  0.245E-02
 23.300  0.582E-02  0.805E-02  0.770E-04  0.110E-03  0.189E-02  0.261E-02  0.189E-02  0.261E-02  0.770E-04  0.110E-03  0.189E-02  0.261E-02
 23.400  0.578E-02  0.894E-02  0.495E-04  0.132E-03  0.189E-02  0.289E-02  0.189E-02  0.289E-02  0.495E-04  0.132E-03  0.189E-02  0.289E-02
 23.500  0.566E-02  0.857E-02  0.152E-04  0.134E-03  0.188E-02  0.277E-02  0.188E-02  0.277E-02  0.152E-04  0.134E-03  0.188E-02  0.277E-02
 23.600  0.451E-02  0.736E-02  0.124E-05  0.919E-04  0.150E-02  0.239E-02  0.150E-02  0.239E-02  0.124E-05  0.919E-04  0.150E-02  0.239E-02
 23.700  0.310E-02  0.670E-02  0.271E-04  0.327E-04  0.102E-02  0.221E-02  0.102E-02  0.221E-02  0.271E-04  0.327E-04  0.102E-02  0.221E-02
 23.800  0.295E-02  0.639E-02  0.877E-04  0.166E-05  0.924E-03  0.213E-02  0.924E-03  0.213E-02  0.877E-04  0.166E-05  0.924E-03  0.213E-02
 23.900  0.387E-02  0.570E-02  0.141E-03  0.267E-04  0.120E-02  0.188E-02  0.120E-02  0.188E-02  0.141E-03  0.267E-04  0.120E-02  0.188E-02
 24.000  0.438E-02  0.526E-02  0.140E-03  0.102E-03  0.137E-02  0.169E-02  0.137E-02  0.169E-02  0.140E-03  0.102E-03  0.137E-02  0.169E-02
 24.100  0.411E-02  0.561E-02  0.889E-04  0.176E-03  0.131E-02  0.175E-02  0.131E-02  0.175E-02  0.889E-04  0.176E-03  0.131E-02  0.175E-02
 24.200  0.398E-02  0.569E-02  0.348E-04  0.184E-03  0.130E-02  0.177E-02  0.130E-02  0.177E-02  0.348E-04  0.184E-03  0.130E-02  0.177E-02
 24.300  0.408E-02  0.486E-02  0.939E-05  0.122E-03  0.136E-02  0.154E-02  0.136E-02  0.154E-02  0.939E-05  0.122E-03  0.136E-02  0.154E-02
 24.400  0.348E-02  0.434E-02  0.436E-05  0.483E-04  0.116E-02  0.142E-02  0.116E-02  0.142E-02  0.436E-05  0.483E-04  0.116E-02  0.142E-02
 24.500  0.215E-02  0.484E-02  0.240E-05  0.118E-04  0.716E-03  0.160E-02  0.716E-03  0.160E-02  0.240E-05  0.118E-04  0.716E-03  0.160E-02
 24.600  0.132E-02  0.500E-02 -0.704E-06  0.626E-05  0.441E-03  0.166E-02  0.441E-03  0.166E-02 -0.704E-06  0.626E-05  0.441E-03  0.166E-02
 24.700  0.166E-02  0.372E-02 -0.656E-05  0.660E-05  0.558E-03  0.124E-02  0.558E-03  0.124E-02 -0.656E-05  0.660E-05  0.558E-03  0.124E-02
 24.800  0.239E-02  0.216E-02 -0.227E-04  0.581E-05  0.810E-03  0.716E-03  0.810E-03  0.716E-03 -0.227E-04  0.581E-05  0.810E-03  0.716E-03
 24.900  0.251E-02  0.201E-02 -0.282E-04  0.789E-05  0.857E-03  0.663E-03  0.857E-03  0.663E-03 -0.282E-04  0.789E-05  0.857E-03  0.663E-03
 25.000  0.232E-02  0.300E-02  0.791E-04  0.333E-05  0.719E-03  0.997E-03  0.719E-03  0.997E-03  0.791E-04  0.333E-05  0.719E-03  0.997E-03
 25.100  0.277E-02  0.353E-02  0.418E-03 -0.198E-04  0.645E-03  0.119E-02  0.645E-03  0.119E-02  0.418E-03 -0.198E-04  0.645E-03  0.119E-02
